 v (km/s)      504
       -3010.99       -2999.15       -2987.31       -2975.46       -2963.62
       -2951.78       -2939.93       -2928.09       -2916.25       -2904.40
       -2892.55       -2880.71       -2868.86       -2857.01       -2845.17
       -2833.32       -2821.47       -2809.62       -2797.77       -2785.92
       -2774.07       -2762.22       -2750.37       -2738.52       -2726.67
       -2714.81       -2702.96       -2691.11       -2679.25       -2667.40
       -2655.54       -2643.69       -2631.83       -2619.97       -2608.12
       -2596.26       -2584.40       -2572.54       -2560.68       -2548.82
       -2536.96       -2525.10       -2513.24       -2501.38       -2489.52
       -2477.66       -2465.80       -2453.93       -2442.07       -2430.20
       -2418.34       -2406.47       -2394.61       -2382.74       -2370.88
       -2359.01       -2347.14       -2335.27       -2323.41       -2311.54
       -2299.67       -2287.80       -2275.93       -2264.06       -2252.19
       -2240.31       -2228.44       -2216.57       -2204.70       -2192.82
       -2180.95       -2169.07       -2157.20       -2145.32       -2133.45
       -2121.57       -2109.69       -2097.82       -2085.94       -2074.06
       -2062.18       -2050.30       -2038.42       -2026.54       -2014.66
       -2002.78       -1990.90       -1979.02       -1967.13       -1955.25
       -1943.37       -1931.48       -1919.60       -1907.71       -1895.83
       -1883.94       -1872.06       -1860.17       -1848.28       -1836.39
       -1824.51       -1812.62       -1800.73       -1788.84       -1776.95
       -1765.06       -1753.17       -1741.28       -1729.38       -1717.49
       -1705.60       -1693.70       -1681.81       -1669.92       -1658.02
       -1646.13       -1634.23       -1622.33       -1610.44       -1598.54
       -1586.64       -1574.74       -1562.84       -1550.95       -1539.05
       -1527.15       -1515.24       -1503.34       -1491.44       -1479.54
       -1467.64       -1455.73       -1443.83       -1431.93       -1420.02
       -1408.12       -1396.21       -1384.31       -1372.40       -1360.49
       -1348.59       -1336.68       -1324.77       -1312.86       -1300.95
       -1289.04       -1277.13       -1265.22       -1253.31       -1241.40
       -1229.49       -1217.57       -1205.66       -1193.75       -1181.83
       -1169.92       -1158.01       -1146.09       -1134.17       -1122.26
       -1110.34       -1098.42       -1086.51       -1074.59       -1062.67
       -1050.75       -1038.83       -1026.91       -1014.99       -1003.07
       -991.147       -979.225       -967.302       -955.380       -943.456
       -931.532       -919.608       -907.683       -895.758       -883.832
       -871.906       -859.979       -848.052       -836.124       -824.196
       -812.267       -800.338       -788.408       -776.478       -764.548
       -752.616       -740.685       -728.753       -716.820       -704.888
       -692.954       -681.020       -669.086       -657.151       -645.216
       -633.280       -621.344       -609.407       -597.470       -585.532
       -573.594       -561.655       -549.716       -537.776       -525.836
       -513.896       -501.954       -490.013       -478.071       -466.128
       -454.186       -442.242       -430.298       -418.354       -406.409
       -394.464       -382.518       -370.571       -358.625       -346.677
       -334.730       -322.782       -310.833       -298.884       -286.934
       -274.984       -263.033       -251.082       -239.131       -227.179
       -215.226       -203.273       -191.320       -179.366       -167.412
       -155.457       -143.501       -131.546       -119.589       -107.632
       -95.6752       -83.7175       -71.7593       -59.8006       -47.8414
       -35.8818       -23.9217       -11.9611   -4.06061e-09        11.9616
        23.9236        35.8861        47.8491        59.8125        71.7765
        83.7409        95.7058        107.671        119.637        131.603
        143.570        155.537        167.505        179.473        191.442
        203.411        215.381        227.351        239.322        251.293
        263.264        275.236        287.209        299.182        311.156
        323.129        335.104        347.079        359.054        371.030
        383.006        394.983        406.961        418.938        430.917
        442.895        454.875        466.854        478.835        490.815
        502.796        514.778        526.760        538.743        550.726
        562.709        574.693        586.678        598.663        610.648
        622.634        634.620        646.607        658.595        670.582
        682.571        694.560        706.549        718.539        730.529
        742.519        754.511        766.502        778.494        790.487
        802.480        814.474        826.468        838.462        850.457
        862.453        874.449        886.445        898.442        910.439
        922.437        934.436        946.435        958.434        970.434
        982.434        994.435        1006.44        1018.44        1030.44
        1042.44        1054.45        1066.45        1078.45        1090.46
        1102.46        1114.47        1126.47        1138.48        1150.49
        1162.50        1174.50        1186.51        1198.52        1210.53
        1222.54        1234.55        1246.56        1258.57        1270.58
        1282.60        1294.61        1306.62        1318.64        1330.65
        1342.66        1354.68        1366.70        1378.71        1390.73
        1402.75        1414.76        1426.78        1438.80        1450.82
        1462.84        1474.86        1486.88        1498.90        1510.92
        1522.94        1534.96        1546.99        1559.01        1571.03
        1583.06        1595.08        1607.11        1619.13        1631.16
        1643.19        1655.21        1667.24        1679.27        1691.30
        1703.33        1715.36        1727.39        1739.42        1751.45
        1763.48        1775.51        1787.54        1799.58        1811.61
        1823.64        1835.68        1847.71        1859.75        1871.78
        1883.82        1895.86        1907.89        1919.93        1931.97
        1944.01        1956.05        1968.09        1980.13        1992.17
        2004.21        2016.25        2028.29        2040.34        2052.38
        2064.42        2076.47        2088.51        2100.55        2112.60
        2124.65        2136.69        2148.74        2160.79        2172.83
        2184.88        2196.93        2208.98        2221.03        2233.08
        2245.13        2257.18        2269.23        2281.29        2293.34
        2305.39        2317.44        2329.50        2341.55        2353.61
        2365.66        2377.72        2389.78        2401.83        2413.89
        2425.95        2438.01        2450.07        2462.12        2474.18
        2486.24        2498.31        2510.37        2522.43        2534.49
        2546.55        2558.62        2570.68        2582.74        2594.81
        2606.87        2618.94        2631.01        2643.07        2655.14
        2667.21        2679.27        2691.34        2703.41        2715.48
        2727.55        2739.62        2751.69        2763.76        2775.84
        2787.91        2799.98        2812.05        2824.13        2836.20
        2848.28        2860.35        2872.43        2884.50        2896.58
        2908.66        2920.74        2932.81        2944.89        2956.97
        2969.05        2981.13        2993.21        3005.29
 g(v)      504
    5.32138e-11    7.82186e-12    2.87792e-12    4.55722e-11    5.24251e-11
    6.47348e-11    1.69900e-11    1.89320e-11    5.51487e-11    4.14564e-11
    2.52698e-12    3.34730e-11    8.51157e-11    1.38996e-11    1.61917e-12
    8.83378e-11    5.40075e-10    1.24749e-09    1.58756e-09    2.03756e-09
    6.78407e-09    6.67499e-09    1.11284e-08    1.10790e-08    2.12501e-08
    1.40937e-08    2.08405e-08    2.49533e-08    2.49947e-08    2.85413e-08
    4.18968e-08    3.69943e-08    3.65624e-08    2.08431e-08    2.67324e-08
    2.64505e-08    1.82992e-08    2.57400e-08    5.83651e-09    2.02918e-08
    8.26555e-09    3.09386e-09    6.22440e-09    6.09902e-09    6.51747e-09
    7.57502e-09    9.20333e-09    2.21611e-08    1.86101e-08    1.64277e-08
    2.07245e-08    2.04109e-08    2.97953e-08    2.88759e-08    2.48137e-08
    2.70288e-08    1.15781e-08    6.74068e-09    6.75891e-10    6.90896e-11
    1.56842e-15    5.85111e-12    3.85872e-11    1.26825e-13    3.17663e-11
    2.32706e-11    1.10278e-10    1.37942e-11    1.04096e-11    1.15062e-11
    4.42668e-11    2.32002e-11    2.73857e-11    2.08182e-11    7.03663e-12
    4.51323e-12    2.11296e-11    4.20291e-13    2.55722e-11    1.51423e-12
    1.57771e-11    5.71996e-13    6.79597e-14    7.52917e-14    1.19462e-12
    1.50118e-12    7.88749e-14    1.91689e-13    2.27617e-14    1.68259e-19
    2.03925e-14    1.56666e-12    4.69526e-12    2.10868e-11    1.07605e-10
    1.57735e-10    5.90793e-10    7.86541e-10    5.21372e-10    2.08160e-09
    1.93426e-09    7.48221e-09    3.38915e-09    5.05311e-09    1.27248e-08
    2.07540e-08    2.14356e-08    2.33100e-08    4.54909e-08    4.20409e-08
    4.46112e-08    3.98434e-08    6.54380e-08    8.76370e-08    7.50526e-08
    7.04395e-08    7.90540e-08    8.00821e-08    6.48626e-08    8.14612e-08
    8.94040e-08    7.48360e-08    8.26656e-08    8.14126e-08    7.11913e-08
    4.94930e-08    6.28898e-08    3.14577e-08    7.98303e-09    1.39426e-09
    3.77748e-08    1.26576e-07    1.95995e-07    1.00037e-07    5.29004e-08
    2.08616e-06    1.25617e-05    4.35426e-05    0.000107333    0.000203290
    0.000304481    0.000369337    0.000372141    0.000314815    0.000228487
    0.000143475    7.92975e-05    3.88454e-05    1.71509e-05    6.88704e-06
    2.55298e-06    9.16090e-07    3.90152e-07    3.34254e-07    7.27212e-07
    2.36019e-06    7.62901e-06    2.19787e-05    5.51432e-05    0.000120681
    0.000232089    0.000393448    0.000591977    0.000801017    0.000987989
     0.00113301     0.00122203     0.00125785     0.00124982     0.00121278
     0.00116379     0.00111389     0.00107186     0.00103927     0.00101321
    0.000991087    0.000964454    0.000920081    0.000854963    0.000767957
    0.000667996    0.000570581    0.000484417    0.000412352    0.000356301
    0.000315547    0.000290526    0.000283760    0.000295963    0.000328115
    0.000383266    0.000459362    0.000555741    0.000667458    0.000781395
    0.000876573    0.000945186    0.000978176    0.000983673    0.000974135
    0.000966115    0.000974039     0.00100757     0.00107815     0.00119208
     0.00136348     0.00159370     0.00186962     0.00216382     0.00240769
     0.00255921     0.00259436     0.00256452     0.00251574     0.00248226
     0.00245001     0.00244501     0.00248516     0.00262007     0.00289036
     0.00331747     0.00386606     0.00446082     0.00502239     0.00550785
     0.00588905     0.00616702     0.00638670     0.00658240     0.00675052
     0.00697106     0.00725882     0.00767437     0.00829749     0.00923022
      0.0104912      0.0119783      0.0136123      0.0150778      0.0160853
      0.0162275      0.0153824      0.0137447      0.0120110      0.0109136
      0.0111035      0.0127894      0.0156905      0.0190605      0.0218900
      0.0235819      0.0238686      0.0228567      0.0208021      0.0179544
      0.0148987      0.0124135      0.0111819      0.0114879      0.0133543
      0.0164859      0.0202064      0.0234846      0.0254089      0.0254265
      0.0236616      0.0207847      0.0174891      0.0142956      0.0114713
     0.00913724     0.00737711     0.00624109     0.00590091     0.00650015
     0.00753649      0.0138750      0.0323776      0.0405513      0.0214243
     0.00494669     0.00251455     0.00255631     0.00277856     0.00312711
     0.00333988     0.00356329     0.00404321     0.00496617     0.00629560
     0.00729132     0.00698897     0.00569090     0.00469015     0.00439627
     0.00437712     0.00407198     0.00326935     0.00220686     0.00130674
    0.000771835    0.000562433    0.000535709    0.000524589    0.000474010
    0.000463623    0.000527835    0.000613859    0.000676015    0.000747989
    0.000832570    0.000860656    0.000794804    0.000688246    0.000585251
    0.000503532    0.000440448    0.000385905    0.000332146    0.000278711
    0.000228156    0.000186797    0.000157085    0.000136771    0.000119595
    9.74150e-05    7.26361e-05    5.44241e-05    4.22270e-05    2.95374e-05
    1.86355e-05    1.36651e-05    1.29917e-05    1.22316e-05    9.67165e-06
    7.80278e-06    7.21895e-06    6.26103e-06    4.43036e-06    2.77333e-06
    1.77723e-06    1.20379e-06    7.68987e-07    3.52199e-07    9.46401e-08
    1.62035e-08    2.04432e-09    6.37389e-12    8.34379e-10    2.54588e-09
    3.83739e-09    4.30337e-09    3.76285e-09    1.84163e-09    3.55157e-11
    1.33993e-08    9.92718e-08    3.21002e-07    6.34968e-07    1.09501e-06
    1.89149e-06    2.77650e-06    2.92971e-06    2.17208e-06    1.22102e-06
    6.59306e-07    4.31790e-07    3.63602e-07    3.48720e-07    3.16660e-07
    2.42334e-07    1.57240e-07    9.30548e-08    5.41347e-08    3.42148e-08
    2.58969e-08    2.28524e-08    1.82651e-08    8.33149e-09    2.52171e-10
    4.93770e-09    1.83721e-08    2.57270e-08    2.09640e-08    1.07790e-08
    3.15548e-09    2.00814e-10    4.03136e-10    1.93256e-09    2.46841e-09
    2.46145e-09    1.52628e-09    8.36550e-10    2.73837e-10    1.40301e-10
    4.39545e-11    1.33811e-12    4.19252e-12    9.69000e-12    1.52199e-11
    2.08146e-11    1.27463e-11    2.74357e-12    1.38871e-15    2.80706e-12
    4.95722e-12    2.50294e-12    1.79925e-10    1.60964e-10    1.92570e-09
    1.71148e-09    1.67507e-09    1.14043e-09    3.21632e-09    1.49946e-09
    8.92149e-10    7.00640e-10    8.54916e-10    1.56033e-09    1.73754e-09
    2.35077e-09    1.74260e-09    1.32916e-09    1.87335e-09    3.18131e-09
    7.53940e-10    6.10547e-10    3.63299e-09    1.23966e-09    1.52392e-09
    1.48907e-10    3.72468e-10    3.02921e-10    3.12599e-10    9.15028e-10
    1.48743e-10    7.66314e-10    1.71906e-09    1.30420e-09    3.38449e-10
    1.96938e-09    1.22489e-09    7.73798e-10    2.67887e-09    2.88211e-09
    3.02309e-09    3.10447e-09    3.13207e-09    4.47893e-09    3.48119e-09
    3.57597e-09    6.37430e-09    6.45749e-09    2.43698e-09    2.67932e-09
    2.93535e-09    4.57577e-09    1.60586e-09    7.30956e-09    3.39706e-09
    5.64633e-09    1.24541e-09    1.44198e-09    6.81960e-09    3.37462e-09
    6.79456e-09    1.03011e-08    1.39412e-09    6.57448e-09    1.42048e-08
    1.00915e-08    6.93661e-09    7.54548e-09    2.19067e-09    8.01658e-09
    3.95368e-09    8.26839e-09    4.94559e-09    1.09686e-09    2.77225e-11
    5.51702e-10    2.38632e-09    5.41774e-09    6.41589e-09    1.51842e-08
    1.46888e-08    1.88364e-08    1.57686e-08    1.41907e-08    1.92661e-08
    1.86574e-08    1.83802e-08    1.82438e-08    1.80446e-08    1.81411e-08
    1.68890e-08    1.90594e-08    1.91809e-08    2.56252e-08    1.88056e-08
    1.46423e-08    1.85059e-08    1.84296e-08    2.03785e-08
